File: RawDataFetcher/RawData/TGA.csv
Date, Open, Close, High, Low, Volume
2018-01-02T05:00:00Z,1.470000,1.460000,1.480000,1.440000,54845
2018-01-08T05:00:00Z,1.440000,1.440000,1.440000,1.420000,119269
2018-01-12T05:00:00Z,1.490000,1.470000,1.490000,1.450000,137980
2018-01-19T05:00:00Z,1.470000,1.480000,1.490000,1.450000,33351
2018-01-25T05:00:00Z,1.460000,1.480000,1.500000,1.460000,60995
2018-01-31T05:00:00Z,1.400000,1.470000,1.480000,1.380000,118619
2018-02-06T05:00:00Z,1.400000,1.400000,1.400200,1.360000,93431
2018-02-12T05:00:00Z,1.270000,1.330000,1.330000,1.270000,70321
2018-02-16T05:00:00Z,1.300000,1.320000,1.350000,1.300000,39746
2018-02-23T05:00:00Z,1.290000,1.320000,1.320000,1.280000,9757
2018-03-01T05:00:00Z,1.338800,1.290000,1.338800,1.280000,14278
2018-03-07T05:00:00Z,1.300000,1.280000,1.320000,1.270000,64872
2018-03-13T04:00:00Z,1.300000,1.340000,1.340000,1.300000,44166
2018-03-19T04:00:00Z,1.320000,1.340000,1.350000,1.320000,27726
2018-03-23T04:00:00Z,1.460000,1.450000,1.460000,1.420100,33225
2018-03-29T04:00:00Z,1.329000,1.340000,1.350000,1.306400,47836
2018-04-05T04:00:00Z,1.310000,1.260000,1.330000,1.250000,273199
2018-04-11T04:00:00Z,1.290000,1.320000,1.340000,1.290000,91766
2018-04-17T04:00:00Z,1.390000,1.400000,1.420000,1.370000,131029
2018-04-23T04:00:00Z,1.600000,1.570000,1.600000,1.531000,136591
2018-04-27T04:00:00Z,1.740000,1.650000,1.750000,1.630000,241543
2018-05-03T04:00:00Z,1.830000,1.830000,1.830000,1.830000,0
2018-05-09T04:00:00Z,2.020000,2.120000,2.140000,2.020000,620575
2018-05-15T04:00:00Z,1.930000,1.950000,2.020000,1.900000,367486
2018-05-21T04:00:00Z,2.380000,2.640000,2.840000,2.350000,1888867
2018-05-25T04:00:00Z,2.300000,2.270000,2.300000,2.120000,519015
2018-06-01T04:00:00Z,2.560000,2.470000,2.580000,2.430000,415879
2018-06-07T04:00:00Z,2.490000,2.450000,2.520000,2.410000,279062
2018-06-13T04:00:00Z,2.390000,2.400000,2.450000,2.360000,401697
2018-06-19T04:00:00Z,2.340000,2.380000,2.410000,2.270000,239488
2018-06-25T04:00:00Z,2.360000,2.400000,2.430000,2.320100,165693
2018-06-29T04:00:00Z,2.770000,2.770000,2.830000,2.690000,641578
2018-07-06T04:00:00Z,2.940000,2.940000,2.950000,2.860000,503533
2018-07-12T04:00:00Z,3.890000,3.760000,3.890000,3.660000,1408573
2018-07-18T04:00:00Z,3.520000,3.590000,3.647700,3.370000,999077
2018-07-24T04:00:00Z,3.370000,3.370000,3.530000,3.370000,684979
2018-07-30T04:00:00Z,3.180000,3.130000,3.230000,3.110000,359477
2018-08-03T04:00:00Z,3.170000,3.220000,3.270000,3.160000,581276
2018-08-09T04:00:00Z,3.210000,3.210000,3.240000,3.130000,209262
2018-08-15T04:00:00Z,3.110000,2.930000,3.120000,2.830000,731248
2018-08-21T04:00:00Z,3.380000,3.470000,3.580000,3.310000,575477
2018-08-27T04:00:00Z,3.490000,3.465000,3.530000,3.420000,231808
2018-08-31T04:00:00Z,3.360000,3.360000,3.390000,3.310000,142985
2018-09-07T04:00:00Z,3.190000,3.210000,3.240000,3.160000,119194
2018-09-13T04:00:00Z,3.560000,3.570000,3.700000,3.540000,237828
2018-09-19T04:00:00Z,3.400000,3.390000,3.410000,3.350000,184086
2018-09-25T04:00:00Z,3.510000,3.440000,3.699900,3.410000,703328
2018-10-01T04:00:00Z,3.350000,3.520000,3.570000,3.350000,466184
2018-10-05T04:00:00Z,3.310000,3.320000,3.360000,3.107500,1167928
2018-10-11T04:00:00Z,3.140000,3.000000,3.210000,2.990000,497805
2018-10-17T04:00:00Z,3.110000,3.090000,3.130000,3.010000,230143
2018-10-23T04:00:00Z,2.520000,2.030000,2.600000,2.020000,2656508
2018-10-29T04:00:00Z,2.460000,2.310000,2.485000,2.270000,321060
2018-11-02T04:00:00Z,2.460000,2.360000,2.480000,2.310000,217971
2018-11-08T05:00:00Z,2.300000,2.220000,2.370000,2.140000,358571
2018-11-14T05:00:00Z,2.410000,2.150000,2.420000,2.120000,243351
2018-11-20T05:00:00Z,2.260000,2.140000,2.300000,2.080000,271729
2018-11-27T05:00:00Z,2.140000,2.010000,2.170000,1.970000,248142
2018-12-03T05:00:00Z,2.170000,2.180000,2.230000,2.150000,139522
2018-12-10T05:00:00Z,1.980000,1.810000,1.980000,1.795400,350949
2018-12-14T05:00:00Z,1.850000,1.780000,1.877300,1.770000,77116
2018-12-20T05:00:00Z,1.660000,1.620000,1.660000,1.549900,302601
2018-12-27T05:00:00Z,1.620000,1.680000,1.680000,1.580000,116338
2019-01-03T05:00:00Z,1.850000,1.890000,1.890000,1.760000,73237
2019-01-09T05:00:00Z,2.060000,2.090000,2.110000,2.030000,135859
2019-01-15T05:00:00Z,1.960000,1.960000,2.010000,1.940000,55244
2019-01-22T05:00:00Z,1.800000,1.760000,1.885800,1.750000,97054
2019-01-28T05:00:00Z,1.840000,1.790000,1.849200,1.770000,16799
2019-02-01T05:00:00Z,1.820000,1.930000,1.990000,1.820000,101705
2019-02-07T05:00:00Z,1.929100,1.870000,1.940000,1.828800,23427
2019-02-13T05:00:00Z,1.930000,1.980000,1.999900,1.930000,90024
2019-02-20T05:00:00Z,2.140000,2.010000,2.185000,1.965000,96727
2019-02-26T05:00:00Z,2.030000,1.980000,2.062900,1.960000,69955
2019-03-04T05:00:00Z,2.000000,1.980000,2.040000,1.980000,74370
2019-03-08T05:00:00Z,2.020000,2.020000,2.060000,1.980000,59004
2019-03-14T04:00:00Z,2.100000,2.080000,2.190000,2.030000,106073
2019-03-20T04:00:00Z,2.180000,2.140000,2.180000,2.120000,155915
2019-03-26T04:00:00Z,1.870000,1.750000,1.900000,1.720000,448275
2019-04-01T04:00:00Z,1.930000,1.860000,1.939900,1.820000,216757
2019-04-05T04:00:00Z,1.790000,1.840000,1.860000,1.770000,88358
2019-04-11T04:00:00Z,1.880000,1.880000,1.970000,1.860000,88099
2019-04-17T04:00:00Z,1.830000,1.860000,1.870000,1.830000,58421
2019-04-24T04:00:00Z,1.950000,1.920000,1.970000,1.890000,158850
2019-04-30T04:00:00Z,1.950000,1.950000,1.970000,1.920000,58159
2019-05-06T04:00:00Z,1.880000,1.870000,1.880000,1.849100,148526
2019-05-10T04:00:00Z,1.800000,1.780000,1.830000,1.779900,103545
2019-05-16T04:00:00Z,1.760000,1.760000,1.790000,1.750000,70216
2019-05-22T04:00:00Z,1.660000,1.600000,1.690000,1.600000,102432
2019-05-29T04:00:00Z,1.520000,1.510000,1.560000,1.500000,98125
2019-06-04T04:00:00Z,1.530000,1.540000,1.550000,1.490000,64752
2019-06-10T04:00:00Z,1.540000,1.490000,1.559100,1.470000,195468
2019-06-14T04:00:00Z,1.470000,1.400000,1.470000,1.380000,122096
2019-06-20T04:00:00Z,1.420000,1.450000,1.470000,1.410000,250860
2019-06-26T04:00:00Z,1.410000,1.420000,1.450000,1.370000,220041
2019-07-02T04:00:00Z,1.440000,1.360000,1.440000,1.350000,86327
2019-07-09T04:00:00Z,1.350000,1.370000,1.380000,1.340000,101651
2019-07-15T04:00:00Z,1.470000,1.480000,1.500000,1.460000,75345
2019-07-19T04:00:00Z,1.430000,1.450000,1.460000,1.420000,102566
2019-07-25T04:00:00Z,1.470000,1.410000,1.470000,1.410000,44812
2019-07-31T04:00:00Z,1.490000,1.550000,1.553100,1.465000,195386
2019-08-06T04:00:00Z,1.450000,1.430000,1.460000,1.420000,201502
2019-08-12T04:00:00Z,1.420000,1.480000,1.480000,1.400000,124176
2019-08-16T04:00:00Z,1.450000,1.470000,1.490000,1.400000,107665
2019-08-22T04:00:00Z,1.450000,1.430000,1.450000,1.420000,38045
2019-08-28T04:00:00Z,1.340000,1.350000,1.360000,1.335000,99917
2019-09-04T04:00:00Z,1.350000,1.350000,1.370000,1.330000,261866
2019-09-10T04:00:00Z,1.460000,1.485000,1.500000,1.440000,260699
2019-09-16T04:00:00Z,1.500000,1.520000,1.600000,1.490000,382457
2019-09-20T04:00:00Z,1.480000,1.430000,1.480000,1.400000,216438
2019-09-26T04:00:00Z,1.370000,1.360000,1.370000,1.340000,169801
2019-10-02T04:00:00Z,1.310000,1.280000,1.315000,1.260000,233329
2019-10-08T04:00:00Z,1.350000,1.310000,1.350000,1.290000,91703
2019-10-14T04:00:00Z,1.290000,1.300000,1.300000,1.280000,35702
2019-10-18T04:00:00Z,1.270000,1.250000,1.290000,1.240000,110842
2019-10-24T04:00:00Z,1.240000,1.230000,1.270000,1.220000,123739
2019-10-30T04:00:00Z,1.180000,1.170000,1.190000,1.160000,80614
2019-11-05T05:00:00Z,1.240000,1.260000,1.280000,1.230000,110904
2019-11-11T05:00:00Z,1.220000,1.220000,1.230000,1.200000,76709
2019-11-15T05:00:00Z,1.170000,1.180000,1.190000,1.170000,123438
2019-11-21T05:00:00Z,1.150000,1.140000,1.170000,1.140000,103496
2019-11-27T05:00:00Z,1.160000,1.140000,1.170000,1.140000,77077
2019-12-04T05:00:00Z,1.130000,1.135000,1.150000,1.110000,220913
2019-12-10T05:00:00Z,1.190000,1.190000,1.198900,1.160000,99420
2019-12-16T05:00:00Z,1.270000,1.280000,1.320000,1.260000,179353
2019-12-20T05:00:00Z,1.360000,1.450000,1.455000,1.360000,409817
2019-12-27T05:00:00Z,1.430000,1.430000,1.470000,1.430000,134394
2020-01-03T05:00:00Z,1.490000,1.450000,1.500000,1.417700,257440